#                                                                                
# Lorentzian broadening with gamma= 0.050000  [eV]
# Im(epsilon) shifted by   0.0000   [eV]
# No intraband contributions added
#
# Energy [eV]    eloss_xx      eloss_zz
#
   0.013610  0.463142E-03  0.477489E-03
   0.040820  0.472740E-03  0.483401E-03
   0.068030  0.482521E-03  0.489388E-03
   0.095240  0.492493E-03  0.495452E-03
   0.122450  0.502665E-03  0.501596E-03
   0.149660  0.513045E-03  0.507821E-03
   0.176870  0.523642E-03  0.514132E-03
   0.204090  0.534471E-03  0.520532E-03
   0.231300  0.545534E-03  0.527020E-03
   0.258510  0.556848E-03  0.533601E-03
   0.285720  0.568423E-03  0.540278E-03
   0.312930  0.580275E-03  0.547055E-03
   0.340140  0.592417E-03  0.553934E-03
   0.367350  0.604865E-03  0.560920E-03
   0.394570  0.617641E-03  0.568018E-03
   0.421780  0.630755E-03  0.575228E-03
   0.448990  0.644230E-03  0.582555E-03
   0.476200  0.658089E-03  0.590006E-03
   0.503410  0.672356E-03  0.597583E-03
   0.530620  0.687059E-03  0.605293E-03
   0.557830  0.702226E-03  0.613139E-03
   0.585040  0.717889E-03  0.621129E-03
   0.612260  0.734092E-03  0.629269E-03
   0.639470  0.750861E-03  0.637562E-03
   0.666680  0.768249E-03  0.646015E-03
   0.693890  0.786305E-03  0.654637E-03
   0.721100  0.805086E-03  0.663434E-03
   0.748310  0.824656E-03  0.672414E-03
   0.775520  0.845088E-03  0.681587E-03
   0.802740  0.866475E-03  0.690963E-03
   0.829950  0.888896E-03  0.700546E-03
   0.857160  0.912470E-03  0.710351E-03
   0.884370  0.937327E-03  0.720387E-03
   0.911580  0.963617E-03  0.730666E-03
   0.938790  0.991521E-03  0.741202E-03
   0.966000  0.102125E-02  0.752009E-03
   0.993220  0.105307E-02  0.763106E-03
   1.020430  0.108728E-02  0.774500E-03
   1.047640  0.112425E-02  0.786213E-03
   1.074850  0.116447E-02  0.798265E-03
   1.102060  0.120852E-02  0.810676E-03
   1.129270  0.125715E-02  0.823470E-03
   1.156480  0.131136E-02  0.836672E-03
   1.183700  0.137245E-02  0.850315E-03
   1.210910  0.144214E-02  0.864419E-03
   1.238120  0.152286E-02  0.879023E-03
   1.265330  0.161809E-02  0.894167E-03
   1.292540  0.173296E-02  0.909894E-03
   1.319750  0.187542E-02  0.926252E-03
   1.346960  0.205843E-02  0.943300E-03
   1.374180  0.230459E-02  0.961113E-03
   1.401390  0.265540E-02  0.979763E-03
   1.428600  0.319084E-02  0.999365E-03
   1.455810  0.404043E-02  0.102007E-02
   1.483020  0.526711E-02  0.104210E-02
   1.510230  0.671865E-02  0.106567E-02
   1.537440  0.826373E-02  0.109098E-02
   1.564660  0.985158E-02  0.111814E-02
   1.591870  0.112921E-01  0.114715E-02
   1.619080  0.123916E-01  0.117807E-02
   1.646290  0.131674E-01  0.121103E-02
   1.673500  0.137022E-01  0.124628E-02
   1.700710  0.140521E-01  0.128407E-02
   1.727920  0.142676E-01  0.132469E-02
   1.755130  0.143796E-01  0.136864E-02
   1.782350  0.144055E-01  0.141662E-02
   1.809560  0.143636E-01  0.146943E-02
   1.836770  0.142672E-01  0.152819E-02
   1.863980  0.141242E-01  0.159464E-02
   1.891190  0.139435E-01  0.167174E-02
   1.918400  0.137332E-01  0.176453E-02
   1.945610  0.135011E-01  0.187994E-02
   1.972830  0.132592E-01  0.202104E-02
   2.000040  0.130207E-01  0.218282E-02
   2.027250  0.128032E-01  0.236279E-02
   2.054460  0.126479E-01  0.256485E-02
   2.081670  0.126436E-01  0.279769E-02
   2.108880  0.128874E-01  0.307319E-02
   2.136090  0.133565E-01  0.340559E-02
   2.163310  0.139183E-01  0.382157E-02
   2.190520  0.144069E-01  0.435986E-02
   2.217730  0.148179E-01  0.507478E-02
   2.244940  0.152132E-01  0.605271E-02
   2.272150  0.156214E-01  0.743296E-02
   2.299360  0.160962E-01  0.937412E-02
   2.326570  0.167036E-01  0.117812E-01
   2.353790  0.174208E-01  0.140338E-01
   2.381000  0.181348E-01  0.157108E-01
   2.408210  0.187690E-01  0.169653E-01
   2.435420  0.193178E-01  0.180826E-01
   2.462630  0.198021E-01  0.191250E-01
   2.489840  0.202755E-01  0.201202E-01
   2.517050  0.208401E-01  0.211048E-01
   2.544270  0.216005E-01  0.221205E-01
   2.571480  0.226732E-01  0.232147E-01
   2.598690  0.241103E-01  0.244371E-01
   2.625900  0.258429E-01  0.257479E-01
   2.653110  0.277661E-01  0.269416E-01
   2.680320  0.296153E-01  0.278542E-01
   2.707530  0.311946E-01  0.285148E-01
   2.734750  0.324630E-01  0.289775E-01
   2.761960  0.334806E-01  0.292324E-01
   2.789170  0.343396E-01  0.292918E-01
   2.816380  0.350685E-01  0.292458E-01
   2.843590  0.357051E-01  0.291455E-01
   2.870800  0.363389E-01  0.290005E-01
   2.898010  0.371113E-01  0.288310E-01
   2.925220  0.384272E-01  0.286674E-01
   2.952440  0.411841E-01  0.285479E-01
   2.979650  0.461915E-01  0.285443E-01
   3.006860  0.527541E-01  0.287977E-01
   3.034070  0.591429E-01  0.295863E-01
   3.061280  0.641601E-01  0.311493E-01
   3.088490  0.675998E-01  0.331937E-01
   3.115700  0.696933E-01  0.351893E-01
   3.142920  0.712317E-01  0.366422E-01
   3.170130  0.721597E-01  0.374506E-01
   3.197340  0.723201E-01  0.380598E-01
   3.224550  0.723480E-01  0.387672E-01
   3.251760  0.731879E-01  0.388843E-01
   3.278970  0.750259E-01  0.377164E-01
   3.306180  0.775435E-01  0.357787E-01
   3.333400  0.803722E-01  0.338673E-01
   3.360610  0.829979E-01  0.323730E-01
   3.387820  0.848264E-01  0.313732E-01
   3.415030  0.855304E-01  0.307850E-01
   3.442240  0.851129E-01  0.305063E-01
   3.469450  0.839787E-01  0.304415E-01
   3.496660  0.827289E-01  0.305317E-01
   3.523880  0.815572E-01  0.307751E-01
   3.551090  0.801828E-01  0.312021E-01
   3.578300  0.780454E-01  0.317399E-01
   3.605510  0.750208E-01  0.319972E-01
   3.632720  0.717211E-01  0.317247E-01
   3.659930  0.688485E-01  0.311940E-01
   3.687140  0.666386E-01  0.306733E-01
   3.714360  0.649954E-01  0.302929E-01
   3.741570  0.640003E-01  0.301524E-01
   3.768780  0.638786E-01  0.303868E-01
   3.795990  0.645271E-01  0.311289E-01
   3.823200  0.655194E-01  0.322012E-01
   3.850410  0.665891E-01  0.330827E-01
   3.877620  0.676314E-01  0.335462E-01
   3.904840  0.686676E-01  0.337952E-01
   3.932050  0.697555E-01  0.340268E-01
   3.959260  0.708820E-01  0.342961E-01
   3.986470  0.718884E-01  0.345822E-01
   4.013680  0.725969E-01  0.347272E-01
   4.040890  0.728889E-01  0.344767E-01
   4.068100  0.727170E-01  0.338705E-01
   4.095310  0.721377E-01  0.330305E-01
   4.122530  0.712086E-01  0.319393E-01
   4.149740  0.699601E-01  0.305868E-01
   4.176950  0.684129E-01  0.290232E-01
   4.204160  0.665810E-01  0.273738E-01
   4.231370  0.644461E-01  0.256966E-01
   4.258580  0.619885E-01  0.240676E-01
   4.285790  0.595921E-01  0.226101E-01
   4.313010  0.582778E-01  0.214107E-01
   4.340220  0.586644E-01  0.204948E-01
   4.367430  0.602435E-01  0.198073E-01
   4.394640  0.625214E-01  0.192580E-01
   4.421850  0.648551E-01  0.189253E-01
   4.449060  0.671089E-01  0.189124E-01
   4.476270  0.693268E-01  0.192733E-01
   4.503490  0.713481E-01  0.199082E-01
   4.530700  0.730385E-01  0.207857E-01
   4.557910  0.745193E-01  0.218700E-01
   4.585120  0.759797E-01  0.231184E-01
   4.612330  0.773420E-01  0.246948E-01
   4.639540  0.784402E-01  0.267284E-01
   4.666750  0.792514E-01  0.289034E-01
   4.693970  0.797993E-01  0.308369E-01
   4.721180  0.800564E-01  0.324891E-01
   4.748390  0.802456E-01  0.339108E-01
   4.775600  0.805969E-01  0.352408E-01
   4.802810  0.810970E-01  0.367060E-01
   4.830020  0.817215E-01  0.383927E-01
   4.857230  0.824766E-01  0.402405E-01
   4.884450  0.831960E-01  0.420819E-01
   4.911660  0.838706E-01  0.437562E-01
   4.938870  0.846717E-01  0.451488E-01
   4.966080  0.855157E-01  0.462512E-01
   4.993290  0.861510E-01  0.471235E-01
   5.020500  0.866878E-01  0.478097E-01
   5.047710  0.873643E-01  0.482799E-01
   5.074930  0.880924E-01  0.484900E-01
   5.102140  0.886384E-01  0.484706E-01
   5.129350  0.888289E-01  0.484840E-01
   5.156560  0.886947E-01  0.491374E-01
   5.183770  0.883638E-01  0.509019E-01
   5.210980  0.879143E-01  0.534051E-01
   5.238190  0.873507E-01  0.557539E-01
   5.265400  0.870116E-01  0.574710E-01
   5.292620  0.878756E-01  0.582949E-01
   5.319830  0.900745E-01  0.579488E-01
   5.347040  0.929833E-01  0.565691E-01
   5.374250  0.963146E-01  0.550447E-01
   5.401460  0.999594E-01  0.543284E-01
   5.428670  0.104152E+00  0.541120E-01
   5.455880  0.108329E+00  0.533648E-01
   5.483100  0.110755E+00  0.523042E-01
   5.510310  0.109985E+00  0.516485E-01
   5.537520  0.106696E+00  0.515207E-01
   5.564730  0.103851E+00  0.518554E-01
   5.591940  0.102738E+00  0.525221E-01
   5.619150  0.102462E+00  0.534571E-01
   5.646360  0.102173E+00  0.545987E-01
   5.673580  0.101422E+00  0.558922E-01
   5.700790  0.100277E+00  0.574945E-01
   5.728000  0.988980E-01  0.596259E-01
   5.755210  0.974335E-01  0.621692E-01
   5.782420  0.959959E-01  0.648512E-01
   5.809630  0.946904E-01  0.675524E-01
   5.836840  0.937224E-01  0.702690E-01
   5.864060  0.933465E-01  0.731210E-01
   5.891270  0.937814E-01  0.762339E-01
   5.918480  0.948408E-01  0.795199E-01
   5.945690  0.961764E-01  0.827130E-01
   5.972900  0.979394E-01  0.856888E-01
   6.000110  0.100279E+00  0.884183E-01
   6.027320  0.102674E+00  0.908404E-01
   6.054540  0.104175E+00  0.930066E-01
   6.081750  0.104507E+00  0.952119E-01
   6.108960  0.104687E+00  0.979377E-01
   6.136170  0.105728E+00  0.101439E+00
   6.163380  0.107721E+00  0.105658E+00
   6.190590  0.110434E+00  0.110548E+00
   6.217800  0.113639E+00  0.116040E+00
   6.245020  0.117038E+00  0.121945E+00
   6.272230  0.120308E+00  0.127997E+00
   6.299440  0.123523E+00  0.133972E+00
   6.326650  0.126996E+00  0.139810E+00
   6.353860  0.131033E+00  0.145708E+00
   6.381070  0.135587E+00  0.151525E+00
   6.408280  0.140021E+00  0.156733E+00
   6.435490  0.143926E+00  0.161025E+00
   6.462710  0.147428E+00  0.164289E+00
   6.489920  0.150675E+00  0.166376E+00
   6.517130  0.153707E+00  0.167236E+00
   6.544340  0.156326E+00  0.166995E+00
   6.571550  0.158259E+00  0.166255E+00
   6.598760  0.159378E+00  0.166146E+00
   6.625970  0.159611E+00  0.166603E+00
   6.653190  0.159104E+00  0.167130E+00
   6.680400  0.158799E+00  0.167766E+00
   6.707610  0.159514E+00  0.168575E+00
   6.734820  0.161275E+00  0.169366E+00
   6.762030  0.163882E+00  0.169712E+00
   6.789240  0.167073E+00  0.169561E+00
   6.816450  0.171035E+00  0.169900E+00
   6.843670  0.175942E+00  0.171109E+00
   6.870880  0.180717E+00  0.172320E+00
   6.898090  0.183961E+00  0.173236E+00
   6.925300  0.185715E+00  0.173913E+00
   6.952510  0.186582E+00  0.173981E+00
   6.979720  0.186645E+00  0.172861E+00
   7.006930  0.185540E+00  0.170238E+00
   7.034150  0.184337E+00  0.166397E+00
   7.061360  0.184222E+00  0.162024E+00
   7.088570  0.185851E+00  0.157780E+00
   7.115780  0.188921E+00  0.154245E+00
   7.142990  0.192178E+00  0.151758E+00
   7.170200  0.194011E+00  0.150129E+00
   7.197410  0.193304E+00  0.149294E+00
   7.224630  0.190603E+00  0.149600E+00
   7.251840  0.186758E+00  0.151536E+00
   7.279050  0.182776E+00  0.155759E+00
   7.306260  0.179511E+00  0.161942E+00
   7.333470  0.176880E+00  0.168806E+00
   7.360680  0.174432E+00  0.175994E+00
   7.387890  0.171948E+00  0.184518E+00
   7.415110  0.168955E+00  0.193790E+00
   7.442320  0.165199E+00  0.202231E+00
   7.469530  0.161334E+00  0.207874E+00
   7.496740  0.157740E+00  0.208289E+00
   7.523950  0.154632E+00  0.203541E+00
   7.551160  0.153968E+00  0.197158E+00
   7.578370  0.157164E+00  0.191663E+00
   7.605580  0.164060E+00  0.187150E+00
   7.632800  0.174290E+00  0.183551E+00
   7.660010  0.186839E+00  0.181179E+00
   7.687220  0.200350E+00  0.180067E+00
   7.714430  0.214416E+00  0.179937E+00
   7.741640  0.229013E+00  0.180293E+00
   7.768850  0.243915E+00  0.180495E+00
   7.796060  0.258586E+00  0.180209E+00
   7.823280  0.272039E+00  0.179568E+00
   7.850490  0.283428E+00  0.178756E+00
   7.877700  0.292714E+00  0.177858E+00
   7.904910  0.300383E+00  0.176924E+00
   7.932120  0.307648E+00  0.175971E+00
   7.959330  0.316529E+00  0.174904E+00
   7.986540  0.327964E+00  0.173592E+00
   8.013760  0.341323E+00  0.172324E+00
   8.040970  0.356391E+00  0.171277E+00
   8.068180  0.373542E+00  0.170105E+00
   8.095390  0.393211E+00  0.168765E+00
   8.122600  0.415899E+00  0.167757E+00
   8.149810  0.441492E+00  0.168053E+00
   8.177020  0.469742E+00  0.169606E+00
   8.204240  0.500896E+00  0.170824E+00
   8.231450  0.535686E+00  0.171174E+00
   8.258660  0.575325E+00  0.171534E+00
   8.285870  0.620357E+00  0.172040E+00
   8.313080  0.668102E+00  0.171866E+00
   8.340290  0.711869E+00  0.171213E+00
   8.367500  0.745667E+00  0.170560E+00
   8.394720  0.765785E+00  0.169815E+00
   8.421930  0.771075E+00  0.168941E+00
   8.449140  0.762493E+00  0.168208E+00
   8.476350  0.741273E+00  0.167749E+00
   8.503560  0.709139E+00  0.167428E+00
   8.530770  0.667959E+00  0.167495E+00
   8.557980  0.619170E+00  0.168320E+00
   8.585200  0.564764E+00  0.169327E+00
   8.612410  0.508126E+00  0.169494E+00
   8.639620  0.454623E+00  0.167855E+00
   8.666830  0.410822E+00  0.163566E+00
   8.694040  0.378227E+00  0.157434E+00
   8.721250  0.353686E+00  0.151693E+00
   8.748460  0.334601E+00  0.146762E+00
   8.775670  0.319669E+00  0.142234E+00
   8.802890  0.308085E+00  0.137800E+00
   8.830100  0.299874E+00  0.133048E+00
   8.857310  0.295627E+00  0.128092E+00
   8.884520  0.294200E+00  0.123767E+00
   8.911730  0.293332E+00  0.120797E+00
   8.938940  0.292117E+00  0.118980E+00
   8.966150  0.290553E+00  0.117669E+00
   8.993370  0.288683E+00  0.116544E+00
   9.020580  0.286673E+00  0.115674E+00
   9.047790  0.284607E+00  0.115346E+00
   9.075000  0.282374E+00  0.115866E+00
   9.102210  0.280164E+00  0.117414E+00
   9.129420  0.277958E+00  0.119702E+00
   9.156630  0.275321E+00  0.122221E+00
   9.183850  0.271937E+00  0.124613E+00
   9.211060  0.267887E+00  0.126627E+00
   9.238270  0.263456E+00  0.128120E+00
   9.265480  0.259057E+00  0.129156E+00
   9.292690  0.255095E+00  0.129758E+00
   9.319900  0.251529E+00  0.129742E+00
   9.347110  0.248085E+00  0.128914E+00
   9.374330  0.244738E+00  0.127672E+00
   9.401540  0.241683E+00  0.126492E+00
   9.428750  0.238768E+00  0.125515E+00
   9.455960  0.235526E+00  0.124464E+00
   9.483170  0.232185E+00  0.122919E+00
   9.510380  0.229312E+00  0.121322E+00
   9.537590  0.226895E+00  0.120804E+00
   9.564810  0.224269E+00  0.121471E+00
   9.592020  0.221012E+00  0.122331E+00
   9.619230  0.217519E+00  0.122654E+00
   9.646440  0.214353E+00  0.122408E+00
   9.673650  0.211608E+00  0.122102E+00
   9.700860  0.209133E+00  0.122201E+00
   9.728070  0.206740E+00  0.122848E+00
   9.755290  0.204244E+00  0.124028E+00
   9.782500  0.201703E+00  0.125590E+00
   9.809710  0.198989E+00  0.127243E+00
   9.836920  0.195805E+00  0.128615E+00
   9.864130  0.192673E+00  0.129399E+00
   9.891340  0.190702E+00  0.129517E+00
   9.918550  0.190145E+00  0.129257E+00
   9.945760  0.190190E+00  0.129153E+00
   9.972980  0.190051E+00  0.129184E+00
  10.000190  0.189422E+00  0.129121E+00
  10.027400  0.188158E+00  0.129137E+00
  10.054610  0.186144E+00  0.129479E+00
  10.081820  0.183599E+00  0.130127E+00
  10.109030  0.181348E+00  0.130885E+00
  10.136240  0.180196E+00  0.131546E+00
  10.163460  0.180228E+00  0.131791E+00
  10.190670  0.181002E+00  0.131526E+00
  10.217880  0.182393E+00  0.131790E+00
  10.245090  0.184292E+00  0.133420E+00
  10.272300  0.186698E+00  0.135964E+00
  10.299510  0.189925E+00  0.138504E+00
  10.326720  0.194050E+00  0.140567E+00
  10.353940  0.198349E+00  0.142486E+00
  10.381150  0.202209E+00  0.144632E+00
  10.408360  0.205632E+00  0.147339E+00
  10.435570  0.208800E+00  0.150873E+00
  10.462780  0.211519E+00  0.154795E+00
  10.489990  0.213391E+00  0.158587E+00
  10.517200  0.214155E+00  0.161749E+00
  10.544420  0.214156E+00  0.163813E+00
  10.571630  0.214555E+00  0.165510E+00
  10.598840  0.216166E+00  0.167283E+00
  10.626050  0.218520E+00  0.169471E+00
  10.653260  0.220521E+00  0.172172E+00
  10.680470  0.221386E+00  0.174403E+00
  10.707680  0.221343E+00  0.175722E+00
  10.734900  0.220794E+00  0.177030E+00
  10.762110  0.219701E+00  0.179292E+00
  10.789320  0.217470E+00  0.182682E+00
  10.816530  0.214528E+00  0.186352E+00
  10.843740  0.213050E+00  0.189394E+00
  10.870950  0.213614E+00  0.191398E+00
  10.898160  0.215703E+00  0.192236E+00
  10.925380  0.218590E+00  0.192261E+00
  10.952590  0.221673E+00  0.192453E+00
  10.979800  0.224704E+00  0.193488E+00
  11.007010  0.227679E+00  0.195210E+00
  11.034220  0.230499E+00  0.197482E+00
  11.061430  0.232894E+00  0.200357E+00
  11.088640  0.234898E+00  0.203837E+00
  11.115850  0.236357E+00  0.207531E+00
  11.143070  0.236512E+00  0.210487E+00
  11.170280  0.234620E+00  0.211815E+00
  11.197490  0.231196E+00  0.210978E+00
  11.224700  0.227951E+00  0.207379E+00
  11.251910  0.225974E+00  0.200925E+00
  11.279120  0.225254E+00  0.193939E+00
  11.306330  0.225290E+00  0.188635E+00
  11.333550  0.225312E+00  0.184777E+00
  11.360760  0.224705E+00  0.181598E+00
  11.387970  0.223069E+00  0.178530E+00
  11.415180  0.220367E+00  0.175323E+00
  11.442390  0.217530E+00  0.172199E+00
  11.469600  0.215613E+00  0.169540E+00
  11.496810  0.214267E+00  0.167438E+00
  11.524030  0.212911E+00  0.165951E+00
  11.551240  0.211537E+00  0.165085E+00
  11.578450  0.210652E+00  0.164604E+00
  11.605660  0.210783E+00  0.164341E+00
  11.632870  0.212069E+00  0.164182E+00
  11.660080  0.214354E+00  0.164049E+00
  11.687290  0.217138E+00  0.163975E+00
  11.714510  0.219983E+00  0.164153E+00
  11.741720  0.222668E+00  0.165087E+00
  11.768930  0.225026E+00  0.166645E+00
  11.796140  0.227357E+00  0.168171E+00
  11.823350  0.230171E+00  0.169298E+00
  11.850560  0.233289E+00  0.170093E+00
  11.877770  0.236177E+00  0.170920E+00
  11.904990  0.238365E+00  0.172355E+00
  11.932200  0.239652E+00  0.175181E+00
  11.959410  0.240277E+00  0.179855E+00
  11.986620  0.241145E+00  0.185884E+00
  12.013830  0.243055E+00  0.192413E+00
  12.041040  0.246224E+00  0.198901E+00
  12.068250  0.250219E+00  0.204983E+00
  12.095470  0.254260E+00  0.210151E+00
  12.122680  0.257744E+00  0.214135E+00
  12.149890  0.260308E+00  0.217426E+00
  12.177100  0.261141E+00  0.220463E+00
  12.204310  0.259341E+00  0.222693E+00
  12.231520  0.255597E+00  0.223278E+00
  12.258730  0.251678E+00  0.221909E+00
  12.285940  0.249036E+00  0.218783E+00
  12.313160  0.248182E+00  0.214477E+00
  12.340370  0.248993E+00  0.209957E+00
  12.367580  0.251488E+00  0.206542E+00
  12.394790  0.255338E+00  0.205249E+00
  12.422000  0.260092E+00  0.205801E+00
  12.449210  0.265017E+00  0.208397E+00
  12.476420  0.269025E+00  0.213224E+00
  12.503640  0.271517E+00  0.219029E+00
  12.530850  0.271983E+00  0.224162E+00
  12.558060  0.270970E+00  0.228179E+00
  12.585270  0.269955E+00  0.231916E+00
  12.612480  0.269423E+00  0.235954E+00
  12.639690  0.269433E+00  0.240401E+00
  12.666900  0.269740E+00  0.245185E+00
  12.694120  0.269902E+00  0.250049E+00
  12.721330  0.270135E+00  0.254805E+00
  12.748540  0.271136E+00  0.259452E+00
  12.775750  0.272489E+00  0.264097E+00
  12.802960  0.272991E+00  0.269006E+00
  12.830170  0.272061E+00  0.274038E+00
  12.857380  0.270082E+00  0.278458E+00
  12.884600  0.268320E+00  0.281887E+00
  12.911810  0.267923E+00  0.284494E+00
  12.939020  0.269227E+00  0.286930E+00
  12.966230  0.272344E+00  0.289942E+00
  12.993440  0.277374E+00  0.294175E+00
  13.020650  0.284284E+00  0.299976E+00
  13.047860  0.292525E+00  0.306811E+00
  13.075080  0.300675E+00  0.314301E+00
  13.102290  0.307714E+00  0.322828E+00
  13.129500  0.313117E+00  0.332776E+00
  13.156710  0.316384E+00  0.343807E+00
  13.183920  0.318160E+00  0.355046E+00
  13.211130  0.319793E+00  0.365934E+00
  13.238340  0.321158E+00  0.375917E+00
  13.265560  0.320996E+00  0.383637E+00
  13.292770  0.319352E+00  0.387950E+00
  13.319980  0.317957E+00  0.390191E+00
  13.347190  0.318182E+00  0.392174E+00
  13.374400  0.319627E+00  0.394197E+00
  13.401610  0.321661E+00  0.396188E+00
